##TITLE=3-BROMO-1-PROPENE
##JCAMP-DX=4.24
##DATA TYPE=INFRARED SPECTRUM
##CLASS=COBLENTZ III
##ORIGIN=WESTERN REGIONAL RES. USDA
##OWNER=COBLENTZ SOCIETY
Collection (C) 2009 copyright by the U.S. Secretary of Commerce
on behalf of the United States of America. All rights reserved.
##DATE=1964/05/20
##CAS REGISTRY NO=106-95-6
##MOLFORM=C3 H5 Br
##BP=70 C
##SOURCE REFERENCE=COBLENTZ NO. 6163
##$NIST SOURCE=COBLENTZ
##$NIST IMAGE=cob6163
##SPECTROMETER/DATA SYSTEM=BECKMAN IR-7 (GRATING)
##INSTRUMENT PARAMETERS=GRATING CHANGES AT 3000, 2200, 1150 CM^-^1
##STATE=SOLUTION (10% IN CCl4 FOR 4000-1330 CM^-^1, 10% IN CS2 FOR 1330-600 CM^-^1)
##PATH LENGTH=0.011 CM, 0.010 CM
$$SPECTRAL CONTAMINATION DUE TO CCl4 AROUND 1550 CM^-^1
##SAMPLING PROCEDURE=TRANSMISSION
##RESOLUTION=4
##DATA PROCESSING=DIGITIZED BY NIST FROM HARD COPY (FROM TWO SEGMENTS)
##XUNITS=1/CM
##YUNITS=TRANSMITTANCE
##XFACTOR=1.000000
##YFACTOR=1
##DELTAX=0.649954
##FIRSTX=598.05
##LASTX=3983.66
##FIRSTY=0.804
##MAXX=3983.66
##MINX=598.05
##MAXY=0.83
##MINY=0.112
##NPOINTS=5210
##XYDATA=(X++(Y..Y))
598.050000 0.8040 0.8070 0.8100 0.8110 0.8130
601.299772 0.8150 0.8170 0.8180 0.8041 0.8070
604.549545 0.8100 0.8110 0.8130 0.8150 0.8170
607.799317 0.8180 0.8180 0.8190 0.8190 0.8190
611.049089 0.8190 0.8190 0.8190 0.8180 0.8170
614.298862 0.8170 0.8170 0.8160 0.8160 0.8160
617.548634 0.8150 0.8150 0.8150 0.8130 0.8110
620.798406 0.8100 0.8090 0.8080 0.8060 0.8060
624.048179 0.8060 0.7980 0.7970 0.7960 0.7940
627.297951 0.7940 0.7940 0.7930 0.7930 0.7930
630.547723 0.7920 0.7920 0.7900 0.7820 0.7810
633.797496 0.7790 0.7770 0.7750 0.7730 0.7710
637.047268 0.7700 0.7660 0.7660 0.7660 0.7640
640.297040 0.7620 0.7610 0.7590 0.7570 0.7540
643.546813 0.7520 0.7500 0.7480 0.7450 0.7410
646.796585 0.7390 0.7370 0.7350 0.7340 0.7320
650.046357 0.7290 0.7230 0.7190 0.7160 0.7140
653.296130 0.7130 0.7120 0.7110 0.7090 0.7080
656.545902 0.7070 0.7050 0.7040 0.7030 0.7030
659.795674 0.7030 0.7040 0.7050 0.7050 0.7060
663.045447 0.7070 0.7070 0.7070 0.7080 0.7080
666.295219 0.7070 0.7070 0.7070 0.7050 0.7040
669.544991 0.7030 0.7030 0.7010 0.6980 0.6920
672.794764 0.6701 0.6650 0.6640 0.6461 0.6350
676.044536 0.6320 0.6310 0.5961 0.5840 0.5720
679.294308 0.5560 0.5490 0.5420 0.5330 0.4992
682.544081 0.4970 0.4810 0.4700 0.4410 0.4240
685.793853 0.4060 0.3861 0.3671 0.3251 0.3051
689.043625 0.2850 0.2650 0.2470 0.2290 0.2290
692.293398 0.2290 0.2290 0.2758 0.3109 0.3249
695.543170 0.3390 0.3680 0.4010 0.4430 0.4720
698.792942 0.4999 0.5379 0.5759 0.6338 0.6350
702.042715 0.6440 0.6530 0.6620 0.6710 0.6750
705.292487 0.6790 0.6830 0.6880 0.6940 0.6980
708.542259 0.7010 0.7130 0.7210 0.7260 0.7290
711.792032 0.7350 0.7370 0.7390 0.7430 0.7460
715.041804 0.7480 0.7510 0.7530 0.7550 0.7550
718.291576 0.7550 0.7560 0.7590 0.7630 0.7640
721.541349 0.7700 0.7750 0.7760 0.7770 0.7780
724.791121 0.7790 0.7800 0.7810 0.7820 0.7830
728.040893 0.7840 0.7860 0.7860 0.7870 0.7870
731.290666 0.7880 0.7880 0.7880 0.7900 0.7910
734.540438 0.7930 0.7940 0.7950 0.7950 0.7960
737.790210 0.7960 0.7970 0.7970 0.7970 0.7970
741.039983 0.7970 0.7980 0.7990 0.7990 0.7990
744.289755 0.7990 0.7990 0.7990 0.7990 0.7990
747.539527 0.7990 0.7990 0.7990 0.7990 0.7980
750.789300 0.7980 0.7980 0.7970 0.7970 0.7970
754.039072 0.7970 0.7970 0.7970 0.7960 0.7960
757.288844 0.7950 0.7950 0.7950 0.7950 0.7950
760.538617 0.7950 0.7950 0.7950 0.7960 0.7970
763.788389 0.7970 0.7980 0.7990 0.8010 0.8020
767.038161 0.8030 0.8040 0.8050 0.8060 0.8070
770.287934 0.8080 0.8090 0.8100 0.8110 0.8110
773.537706 0.8110 0.8120 0.8120 0.8130 0.8130
776.787478 0.8130 0.8130 0.8130 0.8130 0.8130
780.037251 0.8120 0.8120 0.8120 0.8110 0.8110
783.287023 0.8100 0.8090 0.8080 0.8080 0.8080
786.536795 0.8080 0.8070 0.8060 0.8060 0.8060
789.786568 0.8060 0.8070 0.8070 0.8070 0.8070
793.036340 0.8070 0.8080 0.8080 0.8080 0.8080
796.286112 0.8080 0.8080 0.8080 0.8080 0.8070
799.535885 0.8070 0.8080 0.8080 0.8090 0.8100
802.785657 0.8110 0.8110 0.8110 0.8110 0.8120
806.035429 0.8120 0.8120 0.8120 0.8110 0.8110
809.285202 0.8110 0.8110 0.8110 0.8110 0.8110
812.534974 0.8110 0.8110 0.8110 0.8100 0.8100
815.784746 0.8100 0.8100 0.8100 0.8100 0.8100
819.034519 0.8100 0.8100 0.8100 0.8100 0.8100
822.284291 0.8100 0.8100 0.8100 0.8100 0.8100
825.534063 0.8100 0.8100 0.8100 0.8090 0.8090
828.783836 0.8080 0.8080 0.8080 0.8080 0.8080
832.033608 0.8070 0.8060 0.8060 0.8060 0.8060
835.283380 0.8050 0.8050 0.8030 0.8020 0.8010
838.533153 0.7990 0.7980 0.7970 0.7930 0.7850
841.782925 0.7810 0.7780 0.7750 0.7720 0.7680
845.032697 0.7650 0.7600 0.7510 0.7460 0.7450
848.282470 0.7410 0.7360 0.7310 0.7240 0.7170
851.532242 0.7100 0.6920 0.6810 0.6730 0.6710
854.782014 0.6700 0.6670 0.6650 0.6630 0.6600
858.031787 0.6570 0.6540 0.6520 0.6490 0.6450
861.281559 0.6430 0.6380 0.6340 0.6320 0.6270
864.531331 0.6230 0.6190 0.6110 0.6020 0.5930
867.781104 0.5850 0.5850 0.5970 0.6149 0.6250
871.030876 0.6310 0.6450 0.6520 0.6590 0.6720
874.280648 0.6730 0.6740 0.6760 0.6810 0.6850
877.530421 0.6880 0.6920 0.6960 0.6990 0.7030
880.780193 0.7080 0.7130 0.7160 0.7170 0.7180
884.029965 0.7200 0.7230 0.7240 0.7280 0.7280
887.279738 0.7290 0.7340 0.7340 0.7370 0.7410
890.529510 0.7430 0.7460 0.7500 0.7520 0.7540
893.779282 0.7550 0.7550 0.7570 0.7570 0.7570
897.029055 0.7580 0.7580 0.7580 0.7590 0.7590
900.278827 0.7590 0.7590 0.7580 0.7550 0.7530
903.528599 0.7500 0.7480 0.7460 0.7430 0.7390
906.778372 0.7350 0.7300 0.7290 0.7250 0.7210
910.028144 0.7170 0.6930 0.6680 0.6650 0.6580
913.277917 0.6520 0.6470 0.6330 0.6141 0.6011
916.527689 0.5870 0.5600 0.5220 0.4870 0.4260
919.777461 0.3960 0.3351 0.2971 0.2102 0.1931
923.027234 0.1770 0.1610 0.1450 0.1130 0.1120
926.277006 0.1120 0.1130 0.1300 0.1948 0.2129
929.526778 0.2260 0.2400 0.2690 0.2990 0.3290
932.776551 0.3450 0.3610 0.3919 0.4219 0.4360
936.026323 0.4500 0.4780 0.5030 0.5260 0.5440
939.276095 0.5580 0.5660 0.5740 0.5909 0.6030
942.525868 0.6080 0.6200 0.6220 0.6250 0.6380
945.775640 0.6420 0.6530 0.6540 0.6610 0.6670
949.025412 0.6730 0.6790 0.6790 0.6870 0.6940
952.275185 0.7010 0.7100 0.7120 0.7150 0.7160
955.524957 0.7190 0.7230 0.7240 0.7250 0.7270
958.774729 0.7280 0.7280 0.7280 0.7290 0.7300
962.024502 0.7300 0.7310 0.7310 0.7300 0.7290
965.274274 0.7280 0.7250 0.7220 0.7200 0.7170
968.524046 0.7160 0.7130 0.7100 0.7080 0.6950
971.773819 0.6641 0.6610 0.6600 0.6530 0.6341
975.023591 0.6210 0.6100 0.6070 0.6020 0.5910
978.273363 0.5531 0.5290 0.5051 0.4811 0.4391
981.523136 0.4240 0.4150 0.4130 0.4020 0.4010
984.772908 0.4020 0.4140 0.4240 0.4360 0.4470
988.022680 0.4570 0.4910 0.5420 0.5530 0.5640
991.272453 0.6139 0.6449 0.6560 0.6570 0.6720
994.522225 0.6760 0.6800 0.6880 0.6890 0.6960
997.771997 0.7030 0.7100 0.7170 0.7250 0.7320
1001.021770 0.7370 0.7480 0.7550 0.7550 0.7590
1004.271542 0.7630 0.7660 0.7700 0.7730 0.7740
1007.521314 0.7750 0.7770 0.7790 0.7800 0.7820
1010.771087 0.7820 0.7840 0.7850 0.7860 0.7870
1014.020859 0.7880 0.7880 0.7890 0.7900 0.7910
1017.270631 0.7920 0.7920 0.7930 0.7930 0.7930
1020.520404 0.7930 0.7940 0.7940 0.7950 0.7960
1023.770176 0.7970 0.7970 0.7980 0.7980 0.7990
1027.019948 0.7990 0.7990 0.7990 0.8000 0.8000
1030.269721 0.8010 0.8010 0.8010 0.8010 0.8010
1033.519493 0.8010 0.8020 0.8020 0.8020 0.8020
1036.769265 0.8020 0.8020 0.8030 0.8030 0.8030
1040.019038 0.8040 0.8040 0.8040 0.8040 0.8040
1043.268810 0.8040 0.8040 0.8040 0.8040 0.8040
1046.518582 0.8040 0.8040 0.8040 0.8040 0.8040
1049.768355 0.8040 0.8040 0.8040 0.8040 0.8030
1053.018127 0.8030 0.8030 0.8030 0.8030 0.8030
1056.267899 0.8030 0.8020 0.8020 0.8020 0.8020
1059.517672 0.8010 0.8010 0.8010 0.8010 0.8000
1062.767444 0.7990 0.7990 0.7980 0.7970 0.7950
1066.017216 0.7930 0.7920 0.7900 0.7860 0.7830
1069.266989 0.7800 0.7770 0.7720 0.7680 0.7610
1072.516761 0.7570 0.7560 0.7570 0.7590 0.7640
1075.766533 0.7680 0.7700 0.7720 0.7750 0.7790
1079.016306 0.7860 0.7880 0.7900 0.7900 0.7930
1082.266078 0.7940 0.7950 0.7960 0.7970 0.7970
1085.515850 0.7990 0.7990 0.8000 0.8010 0.8020
1088.765623 0.8020 0.8030 0.8030 0.8040 0.8050
1092.015395 0.8060 0.8070 0.8080 0.8090 0.8100
1095.265167 0.8100 0.8100 0.8100 0.8110 0.8110
1098.514940 0.8110 0.8130 0.8130 0.8130 0.8130
1101.764712 0.8130 0.8130 0.8140 0.8140 0.8140
1105.014484 0.8140 0.8140 0.8140 0.8130 0.8130
1108.264257 0.8130 0.8130 0.8120 0.8120 0.8120
1111.514029 0.8110 0.8110 0.8110 0.8100 0.8100
1114.763801 0.8100 0.8100 0.8100 0.8100 0.8100
1118.013574 0.8100 0.8100 0.8100 0.8100 0.8110
1121.263346 0.8110 0.8110 0.8110 0.8110 0.8110
1124.513118 0.8110 0.8110 0.8110 0.8110 0.8110
1127.762891 0.8110 0.8110 0.8110 0.8110 0.8110
1131.012663 0.8110 0.8110 0.8110 0.8110 0.8100
1134.262435 0.8100 0.8100 0.8100 0.8100 0.8100
1137.512208 0.8090 0.8090 0.8080 0.8080 0.8080
1140.761980 0.8080 0.8080 0.8070 0.8070 0.8060
1144.011752 0.8060 0.8060 0.8050 0.8040 0.8040
1147.261525 0.8040 0.8030 0.8020 0.8020 0.8020
1150.511297 0.8010 0.8000 0.7990 0.7970 0.7960
1153.761069 0.7950 0.7940 0.7930 0.7930 0.7920
1157.010842 0.7920 0.7920 0.7920 0.7920 0.7920
1160.260614 0.7910 0.7910 0.7900 0.7900 0.7900
1163.510386 0.7900 0.7900 0.7880 0.7870 0.7860
1166.760159 0.7860 0.7850 0.7840 0.7840 0.7830
1170.009931 0.7820 0.7820 0.7810 0.7800 0.7780
1173.259703 0.7760 0.7730 0.7710 0.7680 0.7650
1176.509476 0.7620 0.7590 0.7560 0.7530 0.7500
1179.759248 0.7480 0.7450 0.7430 0.7410 0.7370
1183.009020 0.7330 0.7320 0.7310 0.7230 0.7140
1186.258793 0.7090 0.7040 0.7000 0.6960 0.6920
1189.508565 0.6880 0.6870 0.6860 0.6710 0.6640
1192.758337 0.6580 0.6540 0.6510 0.6490 0.6450
1196.008110 0.6410 0.6360 0.6290 0.6190 0.6050
1199.257882 0.5890 0.5430 0.5130 0.4841 0.4241
1202.507654 0.3949 0.3360 0.3140 0.2840 0.2600
1205.757427 0.2151 0.1910 0.1681 0.1461 0.1460
1209.007199 0.2151 0.2490 0.2830 0.3350 0.3740
1212.256971 0.4120 0.4500 0.5049 0.5070 0.5280
1215.506744 0.5590 0.5620 0.5640 0.5710 0.5740
1218.756516 0.5980 0.6280 0.6400 0.6500 0.6520
1222.006288 0.6640 0.6760 0.6880 0.6880 0.6950
1225.256061 0.7010 0.7080 0.7080 0.7120 0.7160
1228.505833 0.7190 0.7230 0.7260 0.7300 0.7330
1231.755605 0.7350 0.7370 0.7390 0.7410 0.7410
1235.005378 0.7430 0.7440 0.7450 0.7450 0.7450
1238.255150 0.7440 0.7450 0.7450 0.7440 0.7430
1241.504922 0.7430 0.7410 0.7390 0.7380 0.7350
1244.754695 0.7330 0.7300 0.7280 0.7250 0.7240
1248.004467 0.7230 0.7230 0.7240 0.7300 0.7330
1251.254239 0.7370 0.7420 0.7460 0.7500 0.7540
1254.504012 0.7570 0.7600 0.7630 0.7650 0.7680
1257.753784 0.7700 0.7720 0.7740 0.7760 0.7770
1261.003556 0.7790 0.7810 0.7820 0.7830 0.7840
1264.253329 0.7850 0.7860 0.7870 0.7880 0.7880
1267.503101 0.7880 0.7890 0.7900 0.7900 0.7900
1270.752873 0.7910 0.7920 0.7920 0.7920 0.7920
1274.002646 0.7920 0.7920 0.7900 0.7900 0.7900
1277.252418 0.7900 0.7900 0.7890 0.7890 0.7880
1280.502190 0.7880 0.7880 0.7880 0.7880 0.7880
1283.751963 0.7870 0.7870 0.7870 0.7860 0.7860
1287.001735 0.7850 0.7840 0.7830 0.7830 0.7820
1290.251507 0.7810 0.7810 0.7790 0.7780 0.7760
1293.501280 0.7750 0.7730 0.7720 0.7710 0.7700
1296.751052 0.7680 0.7680 0.7680 0.7680 0.7680
1300.000824 0.7700 0.7730 0.7770 0.7810 0.7830
1303.250597 0.7840 0.7850 0.7860 0.7860 0.7870
1306.500369 0.7880 0.7880 0.7890 0.7900 0.7910
1309.750141 0.7920 0.7920 0.7930 0.7930 0.7930
1312.999914 0.7930 0.7940 0.7940 0.7950 0.7950
1316.249686 0.7950 0.7950 0.7960 0.7960 0.7970
1319.499458 0.7970 0.7970 0.7970 0.7970 0.7980
1322.749231 0.7980 0.7980 0.7990 0.7990 0.7990
1325.999003 0.8000 0.8000 0.8010 0.8010 0.8010
1329.248775 0.8020 0.8020 0.8020 0.8030 0.8030
1332.498548 0.8040 0.8040 0.8040 0.8050 0.8050
1335.748320 0.8050 0.8050 0.8060 0.8060 0.8060
1338.998092 0.8060 0.8060 0.8060 0.8060 0.8060
1342.247865 0.8060 0.8060 0.8060 0.8070 0.8070
1345.497637 0.8070 0.8080 0.8080 0.8080 0.8080
1348.747409 0.8080 0.8090 0.8090 0.8090 0.8100
1351.997182 0.8100 0.8100 0.8100 0.8100 0.8100
1355.246954 0.8110 0.8110 0.8110 0.8110 0.8110
1358.496726 0.8110 0.8110 0.8110 0.8100 0.8100
1361.746499 0.8100 0.8090 0.8080 0.8080 0.8080
1364.996271 0.8070 0.8060 0.8060 0.8040 0.8040
1368.246043 0.8030 0.8020 0.8020 0.8020 0.8010
1371.495816 0.8010 0.8000 0.7980 0.7970 0.7970
1374.745588 0.7970 0.7960 0.7950 0.7950 0.7940
1377.995360 0.7930 0.7930 0.7930 0.7920 0.7920
1381.245133 0.7920 0.7920 0.7910 0.7900 0.7900
1384.494905 0.7900 0.7890 0.7890 0.7880 0.7880
1387.744677 0.7870 0.7870 0.7860 0.7860 0.7840
1390.994450 0.7830 0.7810 0.7790 0.7770 0.7750
1394.244222 0.7730 0.7700 0.7680 0.7650 0.7620
1397.493994 0.7580 0.7540 0.7490 0.7440 0.7370
1400.743767 0.7150 0.6890 0.6650 0.6520 0.6400
1403.993539 0.6280 0.6160 0.6030 0.5910 0.5800
1407.243311 0.5550 0.5430 0.5310 0.5180 0.5060
1410.493084 0.4940 0.4820 0.4820 0.5180 0.5550
1413.742856 0.5650 0.5750 0.6050 0.6290 0.6490
1416.992628 0.6630 0.6740 0.6790 0.6830 0.6900
1420.242401 0.6950 0.7010 0.7070 0.7140 0.7240
1423.492173 0.7280 0.7300 0.7300 0.7320 0.7340
1426.741945 0.7340 0.7350 0.7360 0.7360 0.7350
1429.991718 0.7350 0.7340 0.7320 0.7300 0.7280
1433.241490 0.7250 0.7230 0.7190 0.7150 0.7100
1436.491262 0.7050 0.6980 0.6900 0.6700 0.6580
1439.741035 0.6430 0.6280 0.6110 0.5910 0.5451
1442.990807 0.5330 0.5100 0.5090 0.5100 0.5220
1446.240579 0.5380 0.5600 0.5720 0.5840 0.6089
1449.490352 0.6361 0.6600 0.6720 0.6830 0.7010
1452.740124 0.7150 0.7210 0.7240 0.7250 0.7270
1455.989896 0.7310 0.7350 0.7370 0.7400 0.7430
1459.239669 0.7450 0.7460 0.7480 0.7500 0.7510
1462.489441 0.7520 0.7530 0.7540 0.7540 0.7550
1465.739213 0.7560 0.7570 0.7580 0.7590 0.7600
1468.988986 0.7610 0.7610 0.7630 0.7630 0.7640
1472.238758 0.7650 0.7660 0.7670 0.7680 0.7690
1475.488530 0.7700 0.7710 0.7720 0.7730 0.7730
1478.738303 0.7730 0.7730 0.7730 0.7730 0.7730
1481.988075 0.7730 0.7730 0.7730 0.7680 0.7660
1485.237847 0.7650 0.7630 0.7620 0.7610 0.7590
1488.487620 0.7580 0.7570 0.7550 0.7540 0.7530
1491.737392 0.7510 0.7500 0.7480 0.7470 0.7450
1494.987164 0.7440 0.7420 0.7400 0.7380 0.7370
1498.236937 0.7350 0.7340 0.7320 0.7310 0.7290
1501.486709 0.7220 0.7160 0.7100 0.7060 0.7020
1504.736481 0.6990 0.6960 0.6940 0.6920 0.6900
1507.986254 0.6880 0.6870 0.6840 0.6810 0.6790
1511.236026 0.6710 0.6660 0.6620 0.6600 0.6580
1514.485798 0.6550 0.6510 0.6450 0.6410 0.6360
1517.735571 0.6320 0.6290 0.6260 0.6220 0.6190
1520.985343 0.6150 0.6110 0.6070 0.6040 0.6020
1524.235116 0.6000 0.5970 0.5950 0.5930 0.5910
1527.484888 0.5880 0.5850 0.5840 0.5800 0.5730
1530.734660 0.5650 0.5580 0.5540 0.5500 0.5480
1533.984433 0.5350 0.5320 0.5260 0.5220 0.5200
1537.234205 0.5180 0.5120 0.5060 0.5060 0.4970
1540.483977 0.4930 0.4830 0.4810 0.4760 0.4710
1543.733750 0.4640 0.4610 0.4570 0.4550 0.4460
1546.983522 0.4410 0.4390 0.4350 0.4320 0.4280
1550.233294 0.4270 0.4270 0.4280 0.4280 0.4300
1553.483067 0.4320 0.4340 0.4360 0.4370 0.4400
1556.732839 0.4430 0.4450 0.4490 0.4520 0.4530
1559.982611 0.4590 0.4660 0.4740 0.4840 0.4870
1563.232384 0.4930 0.4970 0.5020 0.5060 0.5070
1566.482156 0.5130 0.5190 0.5220 0.5280 0.5320
1569.731928 0.5420 0.5460 0.5500 0.5530 0.5560
1572.981701 0.5620 0.5620 0.5620 0.5640 0.5670
1576.231473 0.5680 0.5700 0.5720 0.5740 0.5740
1579.481245 0.5750 0.5750 0.5760 0.5770 0.5780
1582.731018 0.5790 0.5810 0.5830 0.5840 0.5860
1585.980790 0.5870 0.5890 0.5910 0.5930 0.5940
1589.230562 0.5960 0.6000 0.6030 0.6070 0.6110
1592.480335 0.6190 0.6260 0.6320 0.6360 0.6400
1595.730107 0.6430 0.6470 0.6500 0.6540 0.6580
1598.979879 0.6630 0.6700 0.6740 0.6780 0.6870
1602.229652 0.6900 0.6960 0.6980 0.7010 0.7050
1605.479424 0.7090 0.7140 0.7180 0.7220 0.7250
1608.729196 0.7270 0.7280 0.7340 0.7390 0.7440
1611.978969 0.7470 0.7500 0.7510 0.7530 0.7530
1615.228741 0.7540 0.7550 0.7550 0.7570 0.7590
1618.478513 0.7590 0.7600 0.7610 0.7610 0.7630
1621.728286 0.7640 0.7680 0.7710 0.7720 0.7730
1624.978058 0.7730 0.7740 0.7750 0.7750 0.7750
1628.227830 0.7740 0.7730 0.7730 0.7730 0.7730
1631.477603 0.7720 0.7680 0.7630 0.7570 0.7520
1634.727375 0.7460 0.7390 0.7320 0.7230 0.7140
1637.977147 0.7030 0.6900 0.6620 0.6610 0.6620
1641.226920 0.6710 0.6790 0.6970 0.7080 0.7200
1644.476692 0.7280 0.7340 0.7370 0.7380 0.7380
1647.726464 0.7380 0.7380 0.7390 0.7430 0.7460
1650.976237 0.7500 0.7550 0.7590 0.7640 0.7690
1654.226009 0.7730 0.7770 0.7810 0.7850 0.7860
1657.475781 0.7880 0.7900 0.7920 0.7920 0.7940
1660.725554 0.7950 0.7950 0.7950 0.7970 0.7970
1663.975326 0.7980 0.7990 0.8000 0.8010 0.8010
1667.225098 0.8020 0.8020 0.8020 0.8020 0.8040
1670.474871 0.8040 0.8040 0.8040 0.8040 0.8040
1673.724643 0.8030 0.8030 0.8030 0.8030 0.8020
1676.974415 0.8020 0.8020 0.8020 0.8020 0.8020
1680.224188 0.8030 0.8030 0.8030 0.8040 0.8040
1683.473960 0.8040 0.8040 0.8040 0.8050 0.8050
1686.723732 0.8060 0.8060 0.8060 0.8060 0.8060
1689.973505 0.8060 0.8070 0.8070 0.8080 0.8080
1693.223277 0.8080 0.8080 0.8080 0.8090 0.8090
1696.473049 0.8100 0.8100 0.8100 0.8100 0.8100
1699.722822 0.8100 0.8110 0.8110 0.8110 0.8110
1702.972594 0.8110 0.8110 0.8110 0.8110 0.8110
1706.222366 0.8110 0.8120 0.8130 0.8130 0.8130
1709.472139 0.8130 0.8130 0.8140 0.8140 0.8150
1712.721911 0.8150 0.8150 0.8160 0.8160 0.8160
1715.971683 0.8160 0.8150 0.8150 0.8150 0.8150
1719.221456 0.8150 0.8150 0.8130 0.8130 0.8130
1722.471228 0.8130 0.8130 0.8130 0.8120 0.8120
1725.721000 0.8120 0.8120 0.8120 0.8120 0.8130
1728.970773 0.8130 0.8130 0.8130 0.8140 0.8140
1732.220545 0.8140 0.8140 0.8140 0.8150 0.8150
1735.470317 0.8150 0.8150 0.8150 0.8150 0.8150
1738.720090 0.8150 0.8150 0.8150 0.8150 0.8150
1741.969862 0.8150 0.8150 0.8150 0.8140 0.8140
1745.219634 0.8140 0.8130 0.8130 0.8130 0.8130
1748.469407 0.8130 0.8130 0.8130 0.8140 0.8140
1751.719179 0.8140 0.8140 0.8150 0.8150 0.8150
1754.968951 0.8150 0.8150 0.8150 0.8150 0.8150
1758.218724 0.8150 0.8160 0.8160 0.8160 0.8160
1761.468496 0.8160 0.8170 0.8170 0.8170 0.8180
1764.718268 0.8180 0.8190 0.8190 0.8190 0.8190
1767.968041 0.8190 0.8200 0.8200 0.8200 0.8200
1771.217813 0.8210 0.8210 0.8220 0.8220 0.8220
1774.467585 0.8220 0.8220 0.8220 0.8220 0.8220
1777.717358 0.8220 0.8220 0.8220 0.8220 0.8220
1780.967130 0.8220 0.8220 0.8220 0.8220 0.8220
1784.216902 0.8220 0.8210 0.8210 0.8210 0.8210
1787.466675 0.8200 0.8200 0.8200 0.8200 0.8200
1790.716447 0.8200 0.8200 0.8200 0.8200 0.8200
1793.966219 0.8200 0.8200 0.8200 0.8190 0.8190
1797.215992 0.8190 0.8190 0.8190 0.8190 0.8190
1800.465764 0.8180 0.8180 0.8180 0.8180 0.8180
1803.715536 0.8180 0.8180 0.8180 0.8180 0.8180
1806.965309 0.8180 0.8180 0.8180 0.8180 0.8180
1810.215081 0.8180 0.8170 0.8170 0.8170 0.8170
1813.464853 0.8170 0.8170 0.8170 0.8170 0.8170
1816.714626 0.8170 0.8170 0.8160 0.8160 0.8150
1819.964398 0.8150 0.8150 0.8150 0.8140 0.8130
1823.214170 0.8130 0.8130 0.8130 0.8120 0.8110
1826.463943 0.8110 0.8110 0.8110 0.8100 0.8100
1829.713715 0.8100 0.8100 0.8100 0.8090 0.8090
1832.963487 0.8090 0.8090 0.8080 0.8080 0.8080
1836.213260 0.8060 0.8060 0.8050 0.8050 0.8040
1839.463032 0.8040 0.8040 0.8020 0.8010 0.7990
1842.712804 0.7990 0.7970 0.7950 0.7940 0.7930
1845.962577 0.7910 0.7900 0.7870 0.7850 0.7840
1849.212349 0.7790 0.7740 0.7670 0.7670 0.7630
1852.462121 0.7590 0.7550 0.7510 0.7500 0.7480
1855.711894 0.7450 0.7400 0.7390 0.7360 0.7340
1858.961666 0.7330 0.7320 0.7320 0.7320 0.7320
1862.211438 0.7330 0.7350 0.7350 0.7370 0.7370
1865.461211 0.7390 0.7410 0.7430 0.7450 0.7470
1868.710983 0.7490 0.7520 0.7540 0.7550 0.7570
1871.960755 0.7590 0.7610 0.7630 0.7660 0.7680
1875.210528 0.7700 0.7720 0.7730 0.7790 0.7790
1878.460300 0.7810 0.7830 0.7840 0.7860 0.7870
1881.710072 0.7880 0.7890 0.7910 0.7940 0.7940
1884.959845 0.7950 0.7960 0.7970 0.7980 0.7990
1888.209617 0.8000 0.8010 0.8020 0.8020 0.8040
1891.459389 0.8040 0.8060 0.8060 0.8070 0.8080
1894.709162 0.8080 0.8080 0.8090 0.8090 0.8100
1897.958934 0.8100 0.8100 0.8100 0.8110 0.8110
1901.208706 0.8110 0.8120 0.8130 0.8130 0.8130
1904.458479 0.8130 0.8140 0.8140 0.8140 0.8150
1907.708251 0.8150 0.8150 0.8150 0.8140 0.8140
1910.958023 0.8140 0.8140 0.8130 0.8130 0.8130
