##TITLE=PROPANE, 2-BROMO-2-METHYL-
##JCAMP-DX=4.24
##DATA TYPE=INFRARED SPECTRUM
##CLASS=COBLENTZ III
##ORIGIN=DOW CHEMICAL COMPANY
##OWNER=COBLENTZ SOCIETY
Collection (C) 2009 copyright by the U.S. Secretary of Commerce
on behalf of the United States of America. All rights reserved.
##DATE=1960/01/10
##NAMES=2-bromo-2-methylpropane
##CAS REGISTRY NO=507-19-7
##MOLFORM=C4 H9 Br
##SOURCE REFERENCE=COBLENTZ NO. 10004
##$NIST SOURCE=COBLENTZ
##$NIST IMAGE=cob10004
##SPECTROMETER/DATA SYSTEM=DOW KBr FOREPRISM-GRATING
##INSTRUMENT PARAMETERS=BLAZED AT 3.5, 12.0, 20.0 MICRON, CHANGED AT 5.0, 7.5, 14.9 MICRON
##STATE=SOLUTION (10% IN CCl4 FOR 3800-1340, AND 10% IN CS2 FOR 1340-430 CM^-^1)
##PATH LENGTH=0.011, 0.011 CM
$$SPECTRAL CONTAMINATION DUE TO CCl4 AROUND 1550, AND CS2 AROUND 860, 650 CM^-^1
##SAMPLING PROCEDURE=TRANSMISSION
##RESOLUTION=4
##DATA PROCESSING=DIGITIZED BY NIST FROM HARD COPY (FROM TWO SEGMENTS)
##XUNITS=1/CM
##YUNITS=TRANSMITTANCE
##XFACTOR=1.000000
##YFACTOR=1
##DELTAX=0.869566
##FIRSTX=424.348
##LASTX=3750.44
##FIRSTY=0.963
##MAXX=3750.44
##MINX=424.348
##MAXY=1.073
##MINY=0
##NPOINTS=3826
##XYDATA=(X++(Y..Y))
424.348000 0.9630 0.9630 0.9630 0.9630 0.9630
428.695829 0.9630 0.9630 0.9630 0.9640 0.9640
433.043657 0.9640 0.9660 0.9660 0.9660 0.9670
437.391486 0.9670 0.9680 0.9680 0.9680 0.9680
441.739314 0.9700 0.9710 0.9720 0.9740 0.9750
446.087143 0.9760 0.9780 0.9790 0.9800 0.9830
450.434972 0.9900 0.9910 0.9910 0.9910 0.9910
454.782800 0.9910 0.9930 0.9930 0.9930 0.9940
459.130629 0.9950 1.0010 1.0020 1.0040 1.0050
463.478458 1.0080 1.0090 1.0100 1.0100 1.0120
467.826286 1.0120 1.0130 1.0140 1.0160 1.0160
472.174115 1.0160 1.0170 1.0170 1.0170 1.0170
476.521943 1.0170 1.0170 1.0160 1.0140 1.0140
480.869772 1.0130 1.0090 1.0080 1.0050 1.0040
485.217601 1.0040 1.0010 1.0000 0.9970 0.9930
489.565429 0.9860 0.9780 0.9720 0.9670 0.9630
493.913258 0.9550 0.9470 0.9360 0.9230 0.9110
498.261086 0.9000 0.8890 0.8790 0.8730 0.8680
502.608915 0.8580 0.8450 0.8260 0.8010 0.7711
506.956744 0.7351 0.6882 0.6193 0.5633 0.5063
511.304572 0.4450 0.3810 0.3170 0.2561 0.2510
515.652401 0.2560 0.3009 0.3508 0.3988 0.4936
520.000230 0.5270 0.6290 0.7359 0.7809 0.8229
524.348058 0.8599 0.8799 0.8949 0.9079 0.9189
528.695887 0.9340 0.9510 0.9570 0.9600 0.9680
533.043715 0.9780 0.9890 1.0059 1.0100 1.0130
537.391544 1.0160 1.0170 1.0190 1.0230 1.0250
541.739373 1.0280 1.0310 1.0320 1.0330 1.0330
546.087201 1.0350 1.0360 1.0390 1.0400 1.0440
550.435030 1.0440 1.0460 1.0460 1.0460 1.0460
554.782859 1.0460 1.0460 1.0460 1.0460 1.0460
559.130687 1.0460 1.0460 1.0460 1.0440 1.0440
563.478516 1.0440 1.0440 1.0440 1.0430 1.0430
567.826344 1.0430 1.0430 1.0430 1.0430 1.0440
572.174173 1.0440 1.0440 1.0460 1.0470 1.0470
576.522002 1.0480 1.0500 1.0540 1.0580 1.0590
580.869830 1.0620 1.0630 1.0650 1.0670 1.0670
585.217659 1.0700 1.0700 1.0720 1.0720 1.0720
589.565487 1.0720 1.0720 1.0700 1.0690 1.0660
593.913316 1.0650 1.0620 1.0610 1.0590 1.0580
598.261145 1.0570 1.0550 1.0540 1.0540 1.0540
602.608973 1.0550 1.0570 1.0580 1.0610 1.0620
606.956802 1.0630 1.0650 1.0660 1.0670 1.0670
611.304631 1.0700 1.0720 1.0720 1.0730 1.0730
615.652459 1.0720 1.0720 1.0700 1.0690 1.0690
620.000288 1.0670 1.0660 1.0660 1.0660 1.0650
624.348116 1.0630 1.0590 1.0580 1.0540 1.0520
628.695945 1.0500 1.0470 1.0460 1.0460 1.0440
633.043774 1.0420 1.0400 1.0390 1.0380 1.0350
637.391602 1.0330 1.0320 1.0290 1.0270 1.0210
641.739431 1.0170 1.0140 1.0120 1.0090 1.0090
646.087259 1.0060 1.0060 1.0050 1.0020 1.0000
650.435088 1.0000 0.9980 0.9970 1.0000 1.0020
654.782917 1.0050 1.0090 1.0130 1.0170 1.0190
659.130745 1.0200 1.0210 1.0230 1.0230 1.0240
663.478574 1.0250 1.0250 1.0250 1.0250 1.0270
667.826403 1.0270 1.0270 1.0280 1.0280 1.0280
672.174231 1.0280 1.0290 1.0290 1.0290 1.0310
676.522060 1.0310 1.0310 1.0320 1.0320 1.0320
680.869888 1.0320 1.0320 1.0320 1.0320 1.0320
685.217717 1.0320 1.0320 1.0320 1.0320 1.0320
689.565546 1.0320 1.0320 1.0320 1.0320 1.0320
693.913374 1.0320 1.0320 1.0320 1.0320 1.0320
698.261203 1.0320 1.0320 1.0320 1.0320 1.0320
702.609031 1.0320 1.0320 1.0320 1.0310 1.0310
706.956860 1.0310 1.0310 1.0290 1.0290 1.0290
711.304689 1.0290 1.0290 1.0280 1.0280 1.0280
715.652517 1.0280 1.0280 1.0280 1.0280 1.0290
720.000346 1.0310 1.0310 1.0310 1.0310 1.0310
724.348175 1.0310 1.0310 1.0310 1.0310 1.0310
728.696003 1.0320 1.0330 1.0330 1.0330 1.0330
733.043832 1.0330 1.0330 1.0330 1.0330 1.0330
737.391660 1.0330 1.0330 1.0350 1.0350 1.0330
741.739489 1.0330 1.0330 1.0330 1.0330 1.0330
746.087318 1.0330 1.0330 1.0330 1.0350 1.0350
750.435146 1.0350 1.0350 1.0350 1.0350 1.0330
754.782975 1.0330 1.0330 1.0330 1.0330 1.0330
759.130803 1.0320 1.0320 1.0320 1.0320 1.0310
763.478632 1.0310 1.0310 1.0310 1.0310 1.0310
767.826461 1.0290 1.0290 1.0290 1.0280 1.0270
772.174289 1.0250 1.0250 1.0250 1.0250 1.0250
776.522118 1.0250 1.0250 1.0240 1.0230 1.0170
780.869947 1.0120 1.0100 1.0090 1.0080 1.0040
785.217775 1.0010 0.9980 0.9930 0.9890 0.9860
789.565604 0.9800 0.9670 0.9560 0.9440 0.9290
793.913432 0.9150 0.8990 0.8811 0.8651 0.8461
798.261261 0.8270 0.8110 0.7850 0.7550 0.7251
802.609090 0.7140 0.6861 0.6521 0.6291 0.6270
806.956918 0.6290 0.6530 0.6970 0.7410 0.7959
811.304747 0.8459 0.8600 0.8700 0.8810 0.8939
815.652576 0.8990 0.9000 0.9000 0.9000 0.9000
820.000404 0.9020 0.9060 0.9130 0.9230 0.9409
824.348233 0.9550 0.9670 0.9760 0.9850 0.9890
828.696061 0.9950 1.0020 1.0050 1.0080 1.0080
833.043890 1.0060 1.0040 1.0020 1.0020 1.0010
837.391719 1.0000 1.0000 0.9980 0.9950 0.9890
841.739547 0.9820 0.9760 0.9710 0.9640 0.9590
846.087376 0.9530 0.9450 0.9380 0.9290 0.9171
850.435204 0.9030 0.8910 0.8830 0.8750 0.8680
854.783033 0.8600 0.8540 0.8530 0.8530 0.8540
859.130862 0.8550 0.8570 0.8580 0.8600 0.8610
863.478690 0.8660 0.8680 0.8720 0.8770 0.8800
867.826519 0.8810 0.8880 0.8910 0.8960 0.9040
872.174348 0.9070 0.9100 0.9130 0.9140 0.9180
876.522176 0.9260 0.9300 0.9320 0.9370 0.9400
880.870005 0.9420 0.9450 0.9490 0.9550 0.9590
885.217833 0.9630 0.9680 0.9720 0.9790 0.9850
889.565662 0.9930 0.9950 0.9970 1.0010 1.0090
893.913491 1.0120 1.0160 1.0170 1.0200 1.0210
898.261319 1.0240 1.0240 1.0270 1.0270 1.0290
902.609148 1.0290 1.0290 1.0290 1.0290 1.0290
906.956976 1.0290 1.0290 1.0290 1.0290 1.0290
911.304805 1.0290 1.0290 1.0290 1.0310 1.0310
915.652634 1.0310 1.0310 1.0310 1.0310 1.0320
920.000462 1.0320 1.0320 1.0310 1.0310 1.0310
924.348291 1.0310 1.0310 1.0310 1.0310 1.0310
928.696120 1.0310 1.0310 1.0310 1.0310 1.0310
933.043948 1.0310 1.0310 1.0310 1.0310 1.0310
937.391777 1.0310 1.0320 1.0330 1.0330 1.0330
941.739605 1.0320 1.0320 1.0320 1.0310 1.0310
946.087434 1.0310 1.0320 1.0320 1.0320 1.0320
950.435263 1.0320 1.0320 1.0310 1.0310 1.0310
954.783091 1.0310 1.0310 1.0310 1.0310 1.0290
959.130920 1.0290 1.0290 1.0290 1.0310 1.0310
963.478748 1.0310 1.0310 1.0320 1.0320 1.0310
967.826577 1.0310 1.0310 1.0320 1.0320 1.0320
972.174406 1.0320 1.0320 1.0320 1.0320 1.0320
976.522234 1.0320 1.0320 1.0320 1.0320 1.0320
980.870063 1.0320 1.0320 1.0320 1.0310 1.0310
985.217892 1.0310 1.0310 1.0310 1.0310 1.0310
989.565720 1.0310 1.0320 1.0320 1.0320 1.0310
993.913549 1.0310 1.0310 1.0310 1.0310 1.0310
998.261377 1.0290 1.0290 1.0290 1.0290 1.0290
1002.609206 1.0280 1.0280 1.0280 1.0280 1.0270
1006.957035 1.0270 1.0270 1.0270 1.0270 1.0270
1011.304863 1.0250 1.0250 1.0240 1.0240 1.0230
1015.652692 1.0210 1.0210 1.0200 1.0170 1.0140
1020.000521 1.0120 1.0100 1.0090 1.0090 1.0080
1024.348349 1.0050 1.0040 1.0010 1.0000 0.9980
1028.696178 0.9980 0.9970 0.9970 1.0000 1.0010
1033.044006 1.0020 1.0020 1.0080 1.0100 1.0120
1037.391835 1.0130 1.0160 1.0160 1.0170 1.0170
1041.739664 1.0190 1.0190 1.0200 1.0200 1.0200
1046.087492 1.0190 1.0190 1.0190 1.0170 1.0170
1050.435321 1.0170 1.0170 1.0160 1.0160 1.0140
1054.783149 1.0140 1.0140 1.0160 1.0160 1.0140
1059.130978 1.0140 1.0140 1.0140 1.0160 1.0160
1063.478807 1.0190 1.0200 1.0200 1.0200 1.0190
1067.826635 1.0190 1.0190 1.0190 1.0190 1.0190
1072.174464 1.0190 1.0190 1.0190 1.0190 1.0190
1076.522293 1.0190 1.0190 1.0190 1.0190 1.0190
1080.870121 1.0190 1.0190 1.0190 1.0190 1.0190
1085.217950 1.0190 1.0190 1.0170 1.0160 1.0140
1089.565778 1.0120 1.0100 1.0090 1.0090 1.0080
1093.913607 1.0060 1.0060 1.0040 1.0040 1.0020
1098.261436 1.0010 1.0000 1.0000 1.0000 0.9980
1102.609264 0.9970 0.9950 0.9930 0.9900 0.9890
1106.957093 0.9860 0.9800 0.9790 0.9740 0.9670
1111.304921 0.9600 0.9560 0.9530 0.9470 0.9360
1115.652750 0.9230 0.9110 0.9030 0.8950 0.8811
1120.000579 0.8700 0.8570 0.8420 0.8360 0.8260
1124.348407 0.8080 0.7980 0.7860 0.7711 0.7541
1128.696236 0.7320 0.7020 0.6670 0.6221 0.5661
1133.044065 0.5211 0.4532 0.3982 0.3542 0.2594
1137.391893 0.1450 0.1180 0.0820 0.0460 0.0160
1141.739722 0.0050 0.0000 0.0000 0.0000 0.0000
1146.087550 0.0000 0.0000 0.0050 0.0100 0.1039
1150.435379 0.1798 0.2618 0.3447 0.4177 0.4748
1154.783208 0.5080 0.5780 0.6389 0.6710 0.6920
1159.131036 0.7209 0.7449 0.7659 0.7780 0.7919
1163.478865 0.8070 0.8200 0.8340 0.8430 0.8490
1167.826693 0.8540 0.8580 0.8680 0.8760 0.8850
1172.174522 0.8920 0.8980 0.9020 0.9060 0.9110
1176.522351 0.9140 0.9170 0.9170 0.9170 0.9180
1180.870179 0.9220 0.9260 0.9290 0.9330 0.9360
1185.218008 0.9380 0.9440 0.9440 0.9440 0.9440
1189.565837 0.9440 0.9420 0.9400 0.9380 0.9360
1193.913665 0.9340 0.9330 0.9320 0.9290 0.9270
1198.261494 0.9260 0.9250 0.9230 0.9250 0.9270
1202.609322 0.9290 0.9340 0.9360 0.9380 0.9400
1206.957151 0.9420 0.9440 0.9470 0.9480 0.9480
1211.304980 0.9480 0.9470 0.9450 0.9450 0.9450
1215.652808 0.9440 0.9420 0.9410 0.9400 0.9400
1220.000637 0.9360 0.9340 0.9330 0.9330 0.9270
1224.348465 0.9170 0.9130 0.9080 0.8990 0.8910
1228.696294 0.8800 0.8601 0.8351 0.8071 0.7741
1233.044123 0.7369 0.6950 0.6310 0.5770 0.5101
1237.391951 0.4900 0.4900 0.5498 0.6118 0.6817
1241.739780 0.7631 0.8640 0.9020 0.9400 0.9600
1246.087609 0.9720 0.9760 0.9780 0.9820 0.9890
1250.435437 0.9930 0.9970 1.0000 1.0020 1.0060
1254.783266 1.0080 1.0120 1.0130 1.0140 1.0140
1259.131094 1.0160 1.0170 1.0170 1.0170 1.0170
1263.478923 1.0170 1.0170 1.0170 1.0170 1.0170
1267.826752 1.0170 1.0170 1.0190 1.0190 1.0190
1272.174580 1.0190 1.0200 1.0200 1.0210 1.0230
1276.522409 1.0230 1.0230 1.0230 1.0230 1.0210
1280.870238 1.0210 1.0210 1.0210 1.0210 1.0200
1285.218066 1.0200 1.0190 1.0190 1.0190 1.0190
1289.565895 1.0190 1.0190 1.0190 1.0190 1.0190
1293.913723 1.0190 1.0190 1.0170 1.0170 1.0140
1298.261552 1.0140 1.0130 1.0120 1.0120 1.0100
1302.609381 1.0100 1.0090 1.0090 1.0090 1.0080
1306.957209 1.0080 1.0060 1.0060 1.0060 1.0080
1311.305038 1.0080 1.0080 1.0080 1.0080 1.0060
1315.652866 1.0050 1.0020 1.0010 1.0000 1.0000
1320.000695 0.9980 0.9970 0.9950 0.9950 0.9940
1324.348524 0.9940 0.9930 0.9910 0.9900 0.9890
1328.696352 0.9870 0.9860 0.9850 0.9830 0.9820
1333.044181 0.9820 0.9820 0.9800 0.9800 0.9790
1337.392010 0.9790 0.9790 0.9780 0.9760 0.9760
1341.739838 0.9720 0.9700 0.9670 0.9640 0.9610
1346.087667 0.9610 0.9600 0.9560 0.9550 0.9520
1350.435495 0.9480 0.9440 0.9370 0.9290 0.9220
1354.783324 0.9170 0.9100 0.9020 0.8950 0.8850
1359.131153 0.8750 0.8620 0.8351 0.7981 0.7851
1363.478981 0.7510 0.7239 0.6330 0.5760 0.5021
1367.826810 0.4701 0.4371 0.2645 0.0916 0.0472
1372.174638 0.0270 0.0270 0.0620 0.1100 0.2748
1376.522467 0.4556 0.5837 0.6488 0.7008 0.7578
1380.870296 0.7780 0.8130 0.8160 0.8410 0.8650
1385.218124 0.8770 0.8910 0.8990 0.9030 0.9040
1389.565953 0.9040 0.9040 0.9020 0.8960 0.8940
1393.913782 0.8910 0.8770 0.8690 0.8690 0.8810
1398.261610 0.9000 0.9130 0.9230 0.9270 0.9370
1402.609439 0.9400 0.9410 0.9420 0.9440 0.9440
1406.957267 0.9440 0.9420 0.9420 0.9410 0.9400
1411.305096 0.9370 0.9360 0.9340 0.9340 0.9330
1415.652925 0.9300 0.9250 0.9230 0.9190 0.9170
1420.000753 0.9040 0.8950 0.8890 0.8850 0.8840
1424.348582 0.8840 0.8850 0.8870 0.8880 0.8890
1428.696410 0.8910 0.8910 0.8890 0.8870 0.8830
1433.044239 0.8800 0.8760 0.8730 0.8700 0.8650
1437.392068 0.8550 0.8430 0.8340 0.8260 0.8170
1441.739896 0.8080 0.7980 0.7850 0.7700 0.7500
1446.087725 0.7240 0.6991 0.6611 0.5962 0.5283
1450.435554 0.4660 0.4110 0.3760 0.3620 0.3540
1454.783382 0.3510 0.3500 0.3510 0.3570 0.3799
1459.131211 0.4021 0.4820 0.5040 0.5400 0.5840
1463.479039 0.6309 0.6749 0.7089 0.7259 0.7559
1467.826868 0.7580 0.7580 0.7520 0.7430 0.7170
1472.174697 0.6821 0.6680 0.6161 0.5243 0.5011
1476.522525 0.5010 0.5200 0.5950 0.6669 0.7199
1480.870354 0.7669 0.7899 0.8089 0.8229 0.8379
1485.218183 0.8470 0.8530 0.8600 0.8610 0.8620
1489.566011 0.8650 0.8690 0.8720 0.8690 0.8680
1493.913840 0.8650 0.8610 0.8580 0.8570 0.8530
1498.261668 0.8490 0.8470 0.8460 0.8450 0.8410
1502.609497 0.8340 0.8300 0.8260 0.8200 0.8130
1506.957326 0.8070 0.8000 0.7980 0.7970 0.7940
1511.305154 0.7900 0.7820 0.7790 0.7770 0.7710
1515.652983 0.7670 0.7640 0.7600 0.7540 0.7480
1520.000811 0.7430 0.7390 0.7330 0.7260 0.7240
1524.348640 0.7210 0.7160 0.7090 0.7070 0.7050
1528.696469 0.6990 0.6920 0.6840 0.6760 0.6680
1533.044297 0.6610 0.6520 0.6410 0.6290 0.6180
1537.392126 0.6050 0.6000 0.5920 0.5780 0.5550
1541.739955 0.5310 0.5270 0.5230 0.5140 0.5090
1546.087783 0.5010 0.4950 0.4910 0.4870 0.4860
1550.435612 0.4860 0.4870 0.4890 0.4900 0.4910
1554.783440 0.4950 0.5000 0.5060 0.5100 0.5190
1559.131269 0.5619 0.5760 0.5770 0.5770 0.5760
1563.479098 0.5760 0.5820 0.5880 0.6000 0.6160
1567.826926 0.6300 0.6330 0.6480 0.6610 0.6690
1572.174755 0.6750 0.6760 0.6770 0.6790 0.6800
1576.522583 0.6820 0.6880 0.6950 0.6970 0.6970
1580.870412 0.6980 0.6980 0.6980 0.6980 0.6990
1585.218241 0.7050 0.7070 0.7100 0.7140 0.7180
1589.566069 0.7260 0.7320 0.7410 0.7500 0.7560
1593.913898 0.7620 0.7730 0.7830 0.7930 0.8020
1598.261727 0.8130 0.8220 0.8310 0.8410 0.8490
1602.609555 0.8580 0.8660 0.8730 0.8810 0.8880
1606.957384 0.8950 0.9030 0.9100 0.9150 0.9260
1611.305212 0.9340 0.9360 0.9410 0.9440 0.9450
1615.653041 0.9470 0.9530 0.9570 0.9610 0.9630
1620.000870 0.9640 0.9640 0.9670 0.9710 0.9710
1624.348698 0.9720 0.9720 0.9740 0.9750 0.9760
1628.696527 0.9780 0.9790 0.9800 0.9820 0.9830
1633.044355 0.9850 0.9860 0.9860 0.9870 0.9870
1637.392184 0.9890 0.9890 0.9900 0.9900 0.9910
1641.740013 0.9910 0.9930 0.9930 0.9940 0.9940
1646.087841 0.9950 0.9950 0.9970 0.9970 0.9970
1650.435670 0.9970 0.9970 0.9970 0.9970 0.9950
1654.783499 0.9940 0.9930 0.9930 0.9930 0.9910
1659.131327 0.9910 0.9900 0.9890 0.9890 0.9890
1663.479156 0.9890 0.9890 0.9890 0.9890 0.9890
1667.826984 0.9890 0.9890 0.9890 0.9890 0.9890
1672.174813 0.9890 0.9890 0.9890 0.9890 0.9890
1676.522642 0.9890 0.9900 0.9910 0.9910 0.9910
1680.870470 0.9910 0.9910 0.9910 0.9910 0.9910
1685.218299 0.9910 0.9930 0.9930 0.9930 0.9930
1689.566127 0.9930 0.9930 0.9930 0.9930 0.9930
1693.913956 0.9940 0.9940 0.9950 0.9950 0.9950
1698.261785 0.9970 0.9970 0.9970 0.9970 0.9970
1702.609613 0.9970 0.9970 0.9970 0.9950 0.9940
1706.957442 0.9940 0.9930 0.9930 0.9910 0.9910
1711.305271 0.9910 0.9910 0.9910 0.9910 0.9910
1715.653099 0.9930 0.9930 0.9930 0.9930 0.9910
1720.000928 0.9910 0.9910 0.9900 0.9900 0.9900
1724.348756 0.9890 0.9870 0.9870 0.9860 0.9860
1728.696585 0.9850 0.9850 0.9850 0.9830 0.9830
1733.044414 0.9830 0.9830 0.9830 0.9830 0.9850
1737.392242 0.9850 0.9850 0.9860 0.9860 0.9870
1741.740071 0.9870 0.9890 0.9890 0.9900 0.9900
1746.087900 0.9910 0.9910 0.9910 0.9930 0.9930
1750.435728 0.9930 0.9930 0.9930 0.9930 0.9910
1754.783557 0.9900 0.9900 0.9900 0.9900 0.9900
1759.131385 0.9910 0.9910 0.9930 0.9930 0.9940
1763.479214 0.9940 0.9950 0.9950 0.9970 0.9970
1767.827043 0.9970 0.9970 1.0000 1.0000 1.0010
1772.174871 1.0010 1.0010 1.0010 1.0010 1.0000
1776.522700 1.0000 1.0000 1.0000 0.9980 0.9980
1780.870528 0.9970 0.9970 0.9970 0.9950 0.9950
1785.218357 0.9940 0.9940 0.9940 0.9940 0.9940
1789.566186 0.9940 0.9930 0.9930 0.9930 0.9930
1793.914014 0.9940 0.9940 0.9940 0.9940 0.9950
1798.261843 0.9950 0.9950 0.9970 0.9970 0.9970
1802.609672 0.9980 0.9980 0.9980 0.9980 0.9980
1806.957500 0.9980 0.9980 0.9980 0.9980 0.9980
1811.305329 0.9980 0.9980 0.9980 0.9980 0.9970
1815.653157 0.9970 0.9970 0.9970 0.9950 0.9950
1820.000986 0.9950 0.9950 0.9940 0.9940 0.9940
1824.348815 0.9940 0.9930 0.9930 0.9930 0.9930
1828.696643 0.9930 0.9930 0.9930 0.9930 0.9930
1833.044472 0.9940 0.9940 0.9930 0.9930 0.9930
1837.392300 0.9910 0.9910 0.9900 0.9900 0.9890
1841.740129 0.9890 0.9890 0.9890 0.9870 0.9870
1846.087958 0.9870 0.9860 0.9860 0.9860 0.9850
1850.435786 0.9850 0.9850 0.9850 0.9830 0.9830
1854.783615 0.9830 0.9820 0.9820 0.9820 0.9820
1859.131444 0.9830 0.9830 0.9850 0.9850 0.9860
1863.479272 0.9860 0.9870 0.9890 0.9890 0.9890
1867.827101 0.9890 0.9900 0.9910 0.9910 0.9930
1872.174929 0.9940 0.9940 0.9940 0.9940 0.9950
1876.522758 0.9950 0.9950 0.9950 0.9950 0.9950
1880.870587 0.9950 0.9950 0.9950 0.9950 0.9950
1885.218415 0.9950 0.9950 0.9950 0.9950 0.9950
1889.566244 0.9950 0.9970 0.9970 0.9970 0.9980
1893.914072 0.9980 1.0000 1.0000 1.0000 1.0000
1898.261901 0.9980 0.9980 0.9980 0.9980 0.9980
1902.609730 0.9970 0.9970 0.9950 0.9950 0.9940
1906.957558 0.9940 0.9940 0.9940 0.9940 0.9940
1911.305387 0.9950 0.9950 0.9950 0.9970 0.9970
1915.653216 0.9970 0.9970 0.9970 0.9970 0.9980
1920.001044 1.0000 1.0000 1.0010 1.0010 1.0020
1924.348873 1.0020 1.0020 1.0020 1.0020 1.0020
1928.696701 1.0020 1.0020 1.0020 1.0010 1.0010
1933.044530 1.0010 1.0010 1.0010 1.0010 1.0000
1937.392359 1.0000 1.0000 1.0000 1.0000 1.0000
1941.740187 1.0000 1.0000 1.0000 1.0000 1.0000
1946.088016 1.0000 1.0000 1.0010 1.0010 1.0010
1950.435845 1.0010 1.0010 1.0010 1.0010 1.0010
1954.783673 1.0020 1.0020 1.0020 1.0020 1.0020
1959.131502 1.0020 1.0020 1.0020 1.0020 1.0020
1963.479330 1.0010 1.0010 1.0000 1.0000 1.0000
1967.827159 0.9980 0.9980 0.9980 0.9980 0.9980
1972.174988 0.9980 0.9980 0.9980 0.9980 0.9980
1976.522816 0.9980 0.9980 0.9980 0.9980 0.9980
1980.870645 0.9980 0.9980 0.9980 0.9980 0.9980
1985.218473 0.9980 0.9980 1.0000 1.0000 1.0000
1989.566302 1.0000 1.0000 1.0000 1.0000 1.0000
1993.914131 1.0000 1.0000 1.0000 1.0000 1.0000
1998.261959 1.0000 1.0000 1.0000 1.0005 1.0010
2002.609788 1.0010 1.0010 1.0010 1.0010 1.0010
2006.957617 1.0010 1.0010 1.0010 1.0015 1.0020
2011.305445 1.0020 1.0020 1.0020 1.0020 1.0020
2015.653274 1.0020 1.0030 1.0040 1.0040 1.0040
2020.001102 1.0040 1.0040 1.0040 1.0040 1.0045
2024.348931 1.0050 1.0050 1.0050 1.0050 1.0050
2028.696760 1.0055 1.0060 1.0060 1.0060 1.0060
2033.044588 1.0060 1.0070 1.0080 1.0080 1.0080
2037.392417 1.0080 1.0080 1.0080 1.0080 1.0085
2041.740245 1.0090 1.0090 1.0090 1.0090 1.0090
2046.088074 1.0090 1.0090 1.0090 1.0090 1.0090
2050.435903 1.0090 1.0090 1.0090 1.0090 1.0090
2054.783731 1.0090 1.0090 1.0090 1.0090 1.0090
2059.131560 1.0090 1.0095 1.0100 1.0100 1.0100
2063.479389 1.0100 1.0100 1.0100 1.0100 1.0100
2067.827217 1.0100 1.0100 1.0100 1.0100 1.0100
2072.175046 1.0100 1.0100 1.0100 1.0100 1.0100
2076.522874 1.0100 1.0100 1.0100 1.0100 1.0100
2080.870703 1.0100 1.0100 1.0100 1.0100 1.0100
2085.218532 1.0100 1.0100 1.0100 1.0100 1.0100
2089.566360 1.0100 1.0100 1.0100 1.0100 1.0100
2093.914189 1.0100 1.0100 1.0100 1.0100 1.0100
2098.262017 1.0100 1.0100 1.0100 1.0100 1.0100
2102.609846 1.0100 1.0100 1.0100 1.0100 1.0100
2106.957675 1.0100 1.0100 1.0100 1.0100 1.0100
2111.305503 1.0100 1.0100 1.0100 1.0100 1.0100
2115.653332 1.0100 1.0100 1.0100 1.0100 1.0100
2120.001161 1.0100 1.0100 1.0100 1.0100 1.0100
2124.348989 1.0100 1.0099 1.0094 1.0090 1.0090
2128.696818 1.0090 1.0090 1.0090 1.0090 1.0090
2133.044646 1.0090 1.0090 1.0090 1.0089 1.0084
2137.392475 1.0080 1.0080 1.0078 1.0068 1.0060
2141.740304 1.0060 1.0059 1.0054 1.0050 1.0050
2146.088132 1.0049 1.0044 1.0040 1.0040 1.0038
2150.435961 1.0028 1.0019 1.0014 1.0010 1.0010
2154.783789 1.0009 1.0004 1.0000 1.0000 0.9998
2159.131618 0.9988 0.9979 0.9974 0.9968 0.9958
2163.479447 0.9949 0.9944 0.9939 0.9934 0.9928
2167.827275 0.9918 0.9909 0.9904 0.9899 0.9894
2172.175104 0.9888 0.9878 0.9870 0.9870 0.9873
2176.522933 0.9883 0.9891 0.9896 0.9901 0.9906
